File: 测试-XRD.txt
3.0      757
3.26     668
3.52     597
3.78     607
4.04     590
4.3      569
4.56     556
4.82     518
5.08     512
5.34     536
5.6      476
5.86     548
6.12     530
6.38     517
6.64     548
6.9      542
7.16     574
7.42     590
7.68     534
7.94     563
8.2      552
8.46     530
8.72     519
8.98     558
9.24     575
9.5      594
9.76     605
10.02    609
10.28    637
10.54    762
10.8     727
11.06    580
11.32    527
11.58    550
11.84    500
12.1     525
12.36    507
12.62    536
12.88    511
13.14    505
13.4     496
13.66    539
13.92    523
14.18    505
14.44    515
14.7     590
14.96    633
15.22    587
15.48    596
15.74    524
16.0     561
16.26    547
16.52    556
16.78    607
17.04    625
17.3     708
17.56    1166
17.82    1202
18.08    710
18.34    663
18.6     662
18.86    635
19.12    657
19.38    653
19.64    639
19.9     663
20.16    681
20.42    687
20.68    692
20.94    707
21.2     682
21.46    716
21.72    675
21.98    765
22.24    738
22.5     763
22.76    751
23.02    890
23.28    861
23.54    858
23.8     1053
24.06    1416
24.32    1219
24.58    935
24.84    907
25.1     869
25.36    974
25.62    931
25.88    766
26.14    794
26.4     816
26.66    760
26.92    760
27.18    751
27.44    716
27.7     766
27.96    717
28.22    840
28.48    942
28.74    936
29.0     1007
29.26    993
29.52    1387
29.78    1396
30.04    1065
30.3     809
30.56    700
30.82    628
31.08    643
31.34    590
31.6     537
31.86    532
32.12    550
32.38    560
32.64    510
32.9     482
33.16    491
33.42    427
33.68    447
33.94    439
34.2     439
34.46    393
34.72    412
34.98    381
35.24    414
35.5     410
35.76    406
36.02    401
36.28    378
36.54    342
36.8     353
37.06    331
37.32    348
37.58    357
37.84    493
38.1     508
38.36    605
38.62    414
38.88    381
39.14    339
39.4     374
39.66    342
39.92    337
40.18    311
40.44    315
40.7     371
40.96    341
41.22    320
41.48    331
41.74    327
42.0     326
42.26    346
42.52    327
42.78    295
43.04    306
43.3     307
43.56    349
43.82    313
44.08    301
44.34    302
44.6     279
44.86    293
45.12    273
45.38    310
45.64    406
45.9     366
46.16    303
46.42    308
46.68    320
46.94    342
47.2     346
47.46    531
47.72    463
47.98    323
48.24    292
48.5     294
48.76    288
49.02    314
49.28    277
49.54    270
49.8     262
50.06    270
50.32    268
50.58    278
50.84    255
51.1     277
51.36    263
51.62    260
51.88    282
52.14    357
52.4     424
52.66    300
52.92    273
53.18    233
53.44    256
53.7     261
53.96    247
54.22    267
54.48    264
54.74    249
55.0     246
55.26    233
55.52    275
55.78    331
56.04    237
56.3     262
56.56    256
56.82    252
57.08    255
57.34    277
57.6     290
57.86    273
58.12    238
58.38    271
58.64    285
58.9     303
59.16    282
59.42    281
59.68    318
59.94    366
60.2     428
60.46    365
60.72    330
60.98    320
61.24    292
61.5     296
61.76    295
62.02    277
62.28    277
62.54    234
62.8     264
63.06    263
63.32    243
63.58    263
63.84    290
64.1     262
64.36    268
64.62    246
64.88    245
65.14    254
65.4     244
65.66    246
65.92    203
66.18    241
66.44    261
66.7     277
66.96    256
67.22    253
67.48    256
67.74    233
68.0     261
68.26    332
68.52    334
68.78    266
69.04    258
69.3     253
69.56    223
69.82    244
70.08    232
70.34    219
70.6     198
70.86    204
71.12    211
71.38    241
71.64    234
71.9     232
72.16    244
72.42    213
72.68    200
72.94    204
73.2     234
73.46    239
73.72    185
73.98    205
74.24    192
74.5     176
74.76    206
75.02    182
75.28    166
75.54    185
75.8     194
76.06    187
76.32    205
76.58    189
76.84    187
77.1     180
77.36    168
77.62    175
77.88    186
78.14    182
78.4     210
78.66    183
78.92    151
79.18    181
79.44    150
79.7     174
79.96    189
80.0     188